CHT
    79.99999    95.99979     0.01000    15.00000     0.10000    43.50000     0.00000    30.00000     0.50000  1601    10.0     0.00
PE 10.000KE/1  Ex=0.000eV WF=0.000eV Ck=XL Det=CTR1 
  Ekin    Phi    Theta  Counts
  79.990 43.500  0.000 100
  79.980 43.500  0.000 83
  79.970 43.500  0.000 87
  79.960 43.500  0.000 91
  79.950 43.500  0.000 95
  79.940 43.500  0.000 77
  79.930 43.500  0.000 101
  79.920 43.500  0.000 86
  79.910 43.500  0.000 101
  79.900 43.500  0.000 84
  79.890 43.500  0.000 95
  79.880 43.500  0.000 98
  79.870 43.500  0.000 83
  79.860 43.500  0.000 89
  79.850 43.500  0.000 77
  79.840 43.500  0.000 73
  79.830 43.500  0.000 103
  79.820 43.500  0.000 90
  79.810 43.500  0.000 81
  79.800 43.500  0.000 83
  79.790 43.500  0.000 75
  79.780 43.500  0.000 75
  79.770 43.500  0.000 80
  79.760 43.500  0.000 97
  79.750 43.500  0.000 72
  79.740 43.500  0.000 66
  79.730 43.500  0.000 95
  79.720 43.500  0.000 70
  79.710 43.500  0.000 103
  79.700 43.500  0.000 88
  79.690 43.500  0.000 90
  79.680 43.500  0.000 86
  79.670 43.500  0.000 83
  79.660 43.500  0.000 90
  79.650 43.500  0.000 86
  79.640 43.500  0.000 79
  79.630 43.500  0.000 76
  79.620 43.500  0.000 89
  79.610 43.500  0.000 105
  79.600 43.500  0.000 90
  79.590 43.500  0.000 77
  79.580 43.500  0.000 95
  79.570 43.500  0.000 98
  79.560 43.500  0.000 84
  79.550 43.500  0.000 84
  79.540 43.500  0.000 85
  79.530 43.500  0.000 98
  79.520 43.500  0.000 101
  79.510 43.500  0.000 97
  79.500 43.500  0.000 89
  79.490 43.500  0.000 78
  79.480 43.500  0.000 84
  79.470 43.500  0.000 90
  79.460 43.500  0.000 75
  79.450 43.500  0.000 91
  79.440 43.500  0.000 86
  79.430 43.500  0.000 90
  79.420 43.500  0.000 92
  79.410 43.500  0.000 85
  79.400 43.500  0.000 89
  79.390 43.500  0.000 84
  79.380 43.500  0.000 78
  79.370 43.500  0.000 95
  79.360 43.500  0.000 86
  79.350 43.500  0.000 90
  79.340 43.500  0.000 75
  79.330 43.500  0.000 76
  79.320 43.500  0.000 81
  79.310 43.500  0.000 78
  79.300 43.500  0.000 73
  79.290 43.500  0.000 89
  79.280 43.500  0.000 103
  79.270 43.500  0.000 98
  79.260 43.500  0.000 80
  79.250 43.500  0.000 89
  79.240 43.500  0.000 101
  79.230 43.500  0.000 79
  79.220 43.500  0.000 75
  79.210 43.500  0.000 77
  79.200 43.500  0.000 94
  79.190 43.500  0.000 75
  79.180 43.500  0.000 84
  79.170 43.500  0.000 89
  79.160 43.500  0.000 78
  79.150 43.500  0.000 74
  79.140 43.500  0.000 82
  79.130 43.500  0.000 84
  79.120 43.500  0.000 85
  79.110 43.500  0.000 86
  79.100 43.500  0.000 82
  79.090 43.500  0.000 93
  79.080 43.500  0.000 84
  79.070 43.500  0.000 83
  79.060 43.500  0.000 75
  79.050 43.500  0.000 81
  79.040 43.500  0.000 77
  79.030 43.500  0.000 100
  79.020 43.500  0.000 86
  79.010 43.500  0.000 86
  79.000 43.500  0.000 79
  78.990 43.500  0.000 81
  78.980 43.500  0.000 90
  78.970 43.500  0.000 97
  78.960 43.500  0.000 91
  78.950 43.500  0.000 88
  78.940 43.500  0.000 98
  78.930 43.500  0.000 94
  78.920 43.500  0.000 106
  78.910 43.500  0.000 97
  78.900 43.500  0.000 87
  78.890 43.500  0.000 93
  78.880 43.500  0.000 91
  78.870 43.500  0.000 73
  78.860 43.500  0.000 105
  78.850 43.500  0.000 71
  78.840 43.500  0.000 84
  78.830 43.500  0.000 85
  78.820 43.500  0.000 95
  78.810 43.500  0.000 87
  78.800 43.500  0.000 80
  78.790 43.500  0.000 98
  78.780 43.500  0.000 80
  78.770 43.500  0.000 86
  78.760 43.500  0.000 65
  78.750 43.500  0.000 98
  78.740 43.500  0.000 72
  78.730 43.500  0.000 83
  78.720 43.500  0.000 91
  78.710 43.500  0.000 83
  78.700 43.500  0.000 81
  78.690 43.500  0.000 92
  78.680 43.500  0.000 84
  78.670 43.500  0.000 81
  78.660 43.500  0.000 101
  78.650 43.500  0.000 92
  78.640 43.500  0.000 62
  78.630 43.500  0.000 70
  78.620 43.500  0.000 84
  78.610 43.500  0.000 90
  78.600 43.500  0.000 83
  78.590 43.500  0.000 91
  78.580 43.500  0.000 103
  78.570 43.500  0.000 82
  78.560 43.500  0.000 90
  78.550 43.500  0.000 75
  78.540 43.500  0.000 87
  78.530 43.500  0.000 86
  78.520 43.500  0.000 90
  78.510 43.500  0.000 92
  78.500 43.500  0.000 90
  78.490 43.500  0.000 62
  78.480 43.500  0.000 91
  78.470 43.500  0.000 83
  78.460 43.500  0.000 93
  78.450 43.500  0.000 95
  78.440 43.500  0.000 90
  78.430 43.500  0.000 90
  78.420 43.500  0.000 89
  78.410 43.500  0.000 91
  78.400 43.500  0.000 77
  78.390 43.500  0.000 109
  78.380 43.500  0.000 100
  78.370 43.500  0.000 78
  78.360 43.500  0.000 89
  78.350 43.500  0.000 114
  78.340 43.500  0.000 85
  78.330 43.500  0.000 100
  78.320 43.500  0.000 98
  78.310 43.500  0.000 90
  78.300 43.500  0.000 70
  78.290 43.500  0.000 83
  78.280 43.500  0.000 85
  78.270 43.500  0.000 103
  78.260 43.500  0.000 83
  78.250 43.500  0.000 96
  78.240 43.500  0.000 89
  78.230 43.500  0.000 87
  78.220 43.500  0.000 90
  78.210 43.500  0.000 64
  78.200 43.500  0.000 96
  78.190 43.500  0.000 94
  78.180 43.500  0.000 85
  78.170 43.500  0.000 84
  78.160 43.500  0.000 87
  78.150 43.500  0.000 87
  78.140 43.500  0.000 92
  78.130 43.500  0.000 96
  78.120 43.500  0.000 87
  78.110 43.500  0.000 95
  78.100 43.500  0.000 98
  78.090 43.500  0.000 89
  78.080 43.500  0.000 115
  78.070 43.500  0.000 92
  78.060 43.500  0.000 98
  78.050 43.500  0.000 91
  78.040 43.500  0.000 92
  78.030 43.500  0.000 92
  78.020 43.500  0.000 96
  78.010 43.500  0.000 82
  78.000 43.500  0.000 102
  77.990 43.500  0.000 95
  77.980 43.500  0.000 99
  77.970 43.500  0.000 95
  77.960 43.500  0.000 90
  77.950 43.500  0.000 91
  77.940 43.500  0.000 84
  77.930 43.500  0.000 98
  77.920 43.500  0.000 103
  77.910 43.500  0.000 97
  77.900 43.500  0.000 101
  77.890 43.500  0.000 88
  77.880 43.500  0.000 69
  77.870 43.500  0.000 88
  77.860 43.500  0.000 98
  77.850 43.500  0.000 89
  77.840 43.500  0.000 112
  77.830 43.500  0.000 92
  77.820 43.500  0.000 100
  77.810 43.500  0.000 106
  77.800 43.500  0.000 99
  77.790 43.500  0.000 88
  77.780 43.500  0.000 95
  77.770 43.500  0.000 89
  77.760 43.500  0.000 92
  77.750 43.500  0.000 84
  77.740 43.500  0.000 98
  77.730 43.500  0.000 89
  77.720 43.500  0.000 82
  77.710 43.500  0.000 99
  77.700 43.500  0.000 92
  77.690 43.500  0.000 87
  77.680 43.500  0.000 92
  77.670 43.500  0.000 85
  77.660 43.500  0.000 98
  77.650 43.500  0.000 88
  77.640 43.500  0.000 69
  77.630 43.500  0.000 82
  77.620 43.500  0.000 99
  77.610 43.500  0.000 90
  77.600 43.500  0.000 103
  77.590 43.500  0.000 82
  77.580 43.500  0.000 95
  77.570 43.500  0.000 78
  77.560 43.500  0.000 100
  77.550 43.500  0.000 97
  77.540 43.500  0.000 83
  77.530 43.500  0.000 113
  77.520 43.500  0.000 77
  77.510 43.500  0.000 85
  77.500 43.500  0.000 115
  77.490 43.500  0.000 88
  77.480 43.500  0.000 97
  77.470 43.500  0.000 92
  77.460 43.500  0.000 88
  77.450 43.500  0.000 104
  77.440 43.500  0.000 86
  77.430 43.500  0.000 111
  77.420 43.500  0.000 114
  77.410 43.500  0.000 110
  77.400 43.500  0.000 112
  77.390 43.500  0.000 98
  77.380 43.500  0.000 96
  77.370 43.500  0.000 98
  77.360 43.500  0.000 89
  77.350 43.500  0.000 109
  77.340 43.500  0.000 91
  77.330 43.500  0.000 104
  77.320 43.500  0.000 116
  77.310 43.500  0.000 92
  77.300 43.500  0.000 109
  77.290 43.500  0.000 96
  77.280 43.500  0.000 109
  77.270 43.500  0.000 104
  77.260 43.500  0.000 105
  77.250 43.500  0.000 92
  77.240 43.500  0.000 98
  77.230 43.500  0.000 89
  77.220 43.500  0.000 109
  77.210 43.500  0.000 97
  77.200 43.500  0.000 99
  77.190 43.500  0.000 109
  77.180 43.500  0.000 113
  77.170 43.500  0.000 95
  77.160 43.500  0.000 96
  77.150 43.500  0.000 85
  77.140 43.500  0.000 124
  77.130 43.500  0.000 119
  77.120 43.500  0.000 103
  77.110 43.500  0.000 103
  77.100 43.500  0.000 112
  77.090 43.500  0.000 105
  77.080 43.500  0.000 88
  77.070 43.500  0.000 111
  77.060 43.500  0.000 123
  77.050 43.500  0.000 105
  77.040 43.500  0.000 100
  77.030 43.500  0.000 121
  77.020 43.500  0.000 120
  77.010 43.500  0.000 99
  77.000 43.500  0.000 96
  76.990 43.500  0.000 113
  76.980 43.500  0.000 114
  76.970 43.500  0.000 106
  76.960 43.500  0.000 107
  76.950 43.500  0.000 110
  76.940 43.500  0.000 110
  76.930 43.500  0.000 122
  76.920 43.500  0.000 106
  76.910 43.500  0.000 101
  76.900 43.500  0.000 101
  76.890 43.500  0.000 98
  76.880 43.500  0.000 107
  76.870 43.500  0.000 105
  76.860 43.500  0.000 109
  76.850 43.500  0.000 109
  76.840 43.500  0.000 113
  76.830 43.500  0.000 109
  76.820 43.500  0.000 128
  76.810 43.500  0.000 110
  76.800 43.500  0.000 125
  76.790 43.500  0.000 103
  76.780 43.500  0.000 114
  76.770 43.500  0.000 134
  76.760 43.500  0.000 124
  76.750 43.500  0.000 115
  76.740 43.500  0.000 130
  76.730 43.500  0.000 118
  76.720 43.500  0.000 100
  76.710 43.500  0.000 115
  76.700 43.500  0.000 140
  76.690 43.500  0.000 123
  76.680 43.500  0.000 121
  76.670 43.500  0.000 131
  76.660 43.500  0.000 130
  76.650 43.500  0.000 126
  76.640 43.500  0.000 113
  76.630 43.500  0.000 121
  76.620 43.500  0.000 124
  76.610 43.500  0.000 97
  76.600 43.500  0.000 113
  76.590 43.500  0.000 100
  76.580 43.500  0.000 149
  76.570 43.500  0.000 128
  76.560 43.500  0.000 130
  76.550 43.500  0.000 108
  76.540 43.500  0.000 129
  76.530 43.500  0.000 109
  76.520 43.500  0.000 132
  76.510 43.500  0.000 139
  76.500 43.500  0.000 102
  76.490 43.500  0.000 139
  76.480 43.500  0.000 115
  76.470 43.500  0.000 132
  76.460 43.500  0.000 136
  76.450 43.500  0.000 128
  76.440 43.500  0.000 128
  76.430 43.500  0.000 148
  76.420 43.500  0.000 137
  76.410 43.500  0.000 137
  76.400 43.500  0.000 126
  76.390 43.500  0.000 132
  76.380 43.500  0.000 143
  76.370 43.500  0.000 134
  76.360 43.500  0.000 132
  76.350 43.500  0.000 134
  76.340 43.500  0.000 139
  76.330 43.500  0.000 147
  76.320 43.500  0.000 143
  76.310 43.500  0.000 140
  76.300 43.500  0.000 156
  76.290 43.500  0.000 155
  76.280 43.500  0.000 150
  76.270 43.500  0.000 141
  76.260 43.500  0.000 142
  76.250 43.500  0.000 165
  76.240 43.500  0.000 118
  76.230 43.500  0.000 170
  76.220 43.500  0.000 166
  76.210 43.500  0.000 164
  76.200 43.500  0.000 165
  76.190 43.500  0.000 152
  76.180 43.500  0.000 166
  76.170 43.500  0.000 165
  76.160 43.500  0.000 162
  76.150 43.500  0.000 170
  76.140 43.500  0.000 169
  76.130 43.500  0.000 177
  76.120 43.500  0.000 176
  76.110 43.500  0.000 181
  76.100 43.500  0.000 190
  76.090 43.500  0.000 193
  76.080 43.500  0.000 181
  76.070 43.500  0.000 175
  76.060 43.500  0.000 177
  76.050 43.500  0.000 192
  76.040 43.500  0.000 217
  76.030 43.500  0.000 215
  76.020 43.500  0.000 187
  76.010 43.500  0.000 228
  76.000 43.500  0.000 211
  75.990 43.500  0.000 240
  75.980 43.500  0.000 239
  75.970 43.500  0.000 230
  75.960 43.500  0.000 247
  75.950 43.500  0.000 239
  75.940 43.500  0.000 252
  75.930 43.500  0.000 258
  75.920 43.500  0.000 254
  75.910 43.500  0.000 259
  75.900 43.500  0.000 284
  75.890 43.500  0.000 285
  75.880 43.500  0.000 302
  75.870 43.500  0.000 270
  75.860 43.500  0.000 292
  75.850 43.500  0.000 296
  75.840 43.500  0.000 329
  75.830 43.500  0.000 286
  75.820 43.500  0.000 313
  75.810 43.500  0.000 308
  75.800 43.500  0.000 343
  75.790 43.500  0.000 357
  75.780 43.500  0.000 339
  75.770 43.500  0.000 376
  75.760 43.500  0.000 386
  75.750 43.500  0.000 372
  75.740 43.500  0.000 349
  75.730 43.500  0.000 356
  75.720 43.500  0.000 385
  75.710 43.500  0.000 386
  75.700 43.500  0.000 391
  75.690 43.500  0.000 377
  75.680 43.500  0.000 367
  75.670 43.500  0.000 392
  75.660 43.500  0.000 342
  75.650 43.500  0.000 366
  75.640 43.500  0.000 333
  75.630 43.500  0.000 384
  75.620 43.500  0.000 341
  75.610 43.500  0.000 352
  75.600 43.500  0.000 341
  75.590 43.500  0.000 403
  75.580 43.500  0.000 353
  75.570 43.500  0.000 360
  75.560 43.500  0.000 359
  75.550 43.500  0.000 331
  75.540 43.500  0.000 354
  75.530 43.500  0.000 342
  75.520 43.500  0.000 332
  75.510 43.500  0.000 330
  75.500 43.500  0.000 351
  75.490 43.500  0.000 293
  75.480 43.500  0.000 337
  75.470 43.500  0.000 286
  75.460 43.500  0.000 323
  75.450 43.500  0.000 329
  75.440 43.500  0.000 332
  75.430 43.500  0.000 318
  75.420 43.500  0.000 320
  75.410 43.500  0.000 320
  75.400 43.500  0.000 328
  75.390 43.500  0.000 295
  75.380 43.500  0.000 312
  75.370 43.500  0.000 319
  75.360 43.500  0.000 321
  75.350 43.500  0.000 329
  75.340 43.500  0.000 317
  75.330 43.500  0.000 302
  75.320 43.500  0.000 379
  75.310 43.500  0.000 344
  75.300 43.500  0.000 361
  75.290 43.500  0.000 351
  75.280 43.500  0.000 383
  75.270 43.500  0.000 412
  75.260 43.500  0.000 431
  75.250 43.500  0.000 390
  75.240 43.500  0.000 356
  75.230 43.500  0.000 437
  75.220 43.500  0.000 366
  75.210 43.500  0.000 408
  75.200 43.500  0.000 444
  75.190 43.500  0.000 498
  75.180 43.500  0.000 442
  75.170 43.500  0.000 518
  75.160 43.500  0.000 497
  75.150 43.500  0.000 575
  75.140 43.500  0.000 512
  75.130 43.500  0.000 517
  75.120 43.500  0.000 521
  75.110 43.500  0.000 524
  75.100 43.500  0.000 661
  75.090 43.500  0.000 652
  75.080 43.500  0.000 642
  75.070 43.500  0.000 621
  75.060 43.500  0.000 669
  75.050 43.500  0.000 664
  75.040 43.500  0.000 651
  75.030 43.500  0.000 717
  75.020 43.500  0.000 705
  75.010 43.500  0.000 686
  75.000 43.500  0.000 663
  74.990 43.500  0.000 700
  74.980 43.500  0.000 776
  74.970 43.500  0.000 760
  74.960 43.500  0.000 722
  74.950 43.500  0.000 699
  74.940 43.500  0.000 763
  74.930 43.500  0.000 760
  74.920 43.500  0.000 733
  74.910 43.500  0.000 784
  74.900 43.500  0.000 771
  74.890 43.500  0.000 777
  74.880 43.500  0.000 775
  74.870 43.500  0.000 759
  74.860 43.500  0.000 818
  74.850 43.500  0.000 761
  74.840 43.500  0.000 714
  74.830 43.500  0.000 656
  74.820 43.500  0.000 711
  74.810 43.500  0.000 703
  74.800 43.500  0.000 722
  74.790 43.500  0.000 679
  74.780 43.500  0.000 727
  74.770 43.500  0.000 755
  74.760 43.500  0.000 751
  74.750 43.500  0.000 716
  74.740 43.500  0.000 745
  74.730 43.500  0.000 757
  74.720 43.500  0.000 717
  74.710 43.500  0.000 725
  74.700 43.500  0.000 732
  74.690 43.500  0.000 709
  74.680 43.500  0.000 691
  74.670 43.500  0.000 715
  74.660 43.500  0.000 745
  74.650 43.500  0.000 759
  74.640 43.500  0.000 762
  74.630 43.500  0.000 696
  74.620 43.500  0.000 826
  74.610 43.500  0.000 804
  74.600 43.500  0.000 826
  74.590 43.500  0.000 809
  74.580 43.500  0.000 879
  74.570 43.500  0.000 895
  74.560 43.500  0.000 889
  74.550 43.500  0.000 823
  74.540 43.500  0.000 922
  74.530 43.500  0.000 900
  74.520 43.500  0.000 920
  74.510 43.500  0.000 924
  74.500 43.500  0.000 948
  74.490 43.500  0.000 955
  74.480 43.500  0.000 1068
  74.470 43.500  0.000 1070
  74.460 43.500  0.000 1050
  74.450 43.500  0.000 1016
  74.440 43.500  0.000 1106
  74.430 43.500  0.000 1116
  74.420 43.500  0.000 1193
  74.410 43.500  0.000 1179
  74.400 43.500  0.000 1164
  74.390 43.500  0.000 1141
  74.380 43.500  0.000 1260
  74.370 43.500  0.000 1209
  74.360 43.500  0.000 1249
  74.350 43.500  0.000 1369
  74.340 43.500  0.000 1236
  74.330 43.500  0.000 1335
  74.320 43.500  0.000 1323
  74.310 43.500  0.000 1343
  74.300 43.500  0.000 1336
  74.290 43.500  0.000 1445
  74.280 43.500  0.000 1382
  74.270 43.500  0.000 1385
  74.260 43.500  0.000 1392
  74.250 43.500  0.000 1442
  74.240 43.500  0.000 1384
  74.230 43.500  0.000 1291
  74.220 43.500  0.000 1292
  74.210 43.500  0.000 1340
  74.200 43.500  0.000 1237
  74.190 43.500  0.000 1233
  74.180 43.500  0.000 1237
  74.170 43.500  0.000 1272
  74.160 43.500  0.000 1235
  74.150 43.500  0.000 1181
  74.140 43.500  0.000 1222
  74.130 43.500  0.000 1136
  74.120 43.500  0.000 1181
  74.110 43.500  0.000 1083
  74.100 43.500  0.000 1066
  74.090 43.500  0.000 1068
  74.080 43.500  0.000 1012
  74.070 43.500  0.000 965
  74.060 43.500  0.000 926
  74.050 43.500  0.000 929
  74.040 43.500  0.000 927
  74.030 43.500  0.000 934
  74.020 43.500  0.000 839
  74.010 43.500  0.000 881
  74.000 43.500  0.000 837
  73.990 43.500  0.000 819
  73.980 43.500  0.000 753
  73.970 43.500  0.000 699
  73.960 43.500  0.000 753
  73.950 43.500  0.000 652
  73.940 43.500  0.000 669
  73.930 43.500  0.000 622
  73.920 43.500  0.000 684
  73.910 43.500  0.000 594
  73.900 43.500  0.000 606
  73.890 43.500  0.000 564
  73.880 43.500  0.000 567
  73.870 43.500  0.000 582
  73.860 43.500  0.000 540
  73.850 43.500  0.000 561
  73.840 43.500  0.000 522
  73.830 43.500  0.000 508
  73.820 43.500  0.000 498
  73.810 43.500  0.000 465
  73.800 43.500  0.000 463
  73.790 43.500  0.000 468
  73.780 43.500  0.000 432
  73.770 43.500  0.000 371
  73.760 43.500  0.000 409
  73.750 43.500  0.000 416
  73.740 43.500  0.000 403
  73.730 43.500  0.000 382
  73.720 43.500  0.000 385
  73.710 43.500  0.000 367
  73.700 43.500  0.000 356
  73.690 43.500  0.000 305
  73.680 43.500  0.000 291
  73.670 43.500  0.000 316
  73.660 43.500  0.000 281
  73.650 43.500  0.000 348
  73.640 43.500  0.000 307
  73.630 43.500  0.000 284
  73.620 43.500  0.000 289
  73.610 43.500  0.000 225
  73.600 43.500  0.000 269
  73.590 43.500  0.000 221
  73.580 43.500  0.000 250
  73.570 43.500  0.000 222
  73.560 43.500  0.000 243
  73.550 43.500  0.000 223
  73.540 43.500  0.000 242
  73.530 43.500  0.000 215
  73.520 43.500  0.000 209
  73.510 43.500  0.000 203
  73.500 43.500  0.000 208
  73.490 43.500  0.000 200
  73.480 43.500  0.000 183
  73.470 43.500  0.000 219
  73.460 43.500  0.000 210
  73.450 43.500  0.000 195
  73.440 43.500  0.000 201
  73.430 43.500  0.000 228
  73.420 43.500  0.000 207
  73.410 43.500  0.000 199
  73.400 43.500  0.000 215
  73.390 43.500  0.000 207
  73.380 43.500  0.000 186
  73.370 43.500  0.000 185
  73.360 43.500  0.000 175
  73.350 43.500  0.000 215
  73.340 43.500  0.000 214
  73.330 43.500  0.000 214
  73.320 43.500  0.000 228
  73.310 43.500  0.000 217
  73.300 43.500  0.000 256
  73.290 43.500  0.000 235
  73.280 43.500  0.000 257
  73.270 43.500  0.000 237
  73.260 43.500  0.000 247
  73.250 43.500  0.000 275
  73.240 43.500  0.000 291
  73.230 43.500  0.000 234
  73.220 43.500  0.000 255
  73.210 43.500  0.000 300
  73.200 43.500  0.000 296
  73.190 43.500  0.000 281
  73.180 43.500  0.000 317
  73.170 43.500  0.000 291
  73.160 43.500  0.000 291
  73.150 43.500  0.000 333
  73.140 43.500  0.000 356
  73.130 43.500  0.000 369
  73.120 43.500  0.000 405
  73.110 43.500  0.000 343
  73.100 43.500  0.000 377
  73.090 43.500  0.000 449
  73.080 43.500  0.000 408
  73.070 43.500  0.000 400
  73.060 43.500  0.000 435
  73.050 43.500  0.000 422
  73.040 43.500  0.000 468
  73.030 43.500  0.000 444
  73.020 43.500  0.000 501
  73.010 43.500  0.000 457
  73.000 43.500  0.000 523
  72.990 43.500  0.000 500
  72.980 43.500  0.000 576
  72.970 43.500  0.000 570
  72.960 43.500  0.000 507
  72.950 43.500  0.000 581
  72.940 43.500  0.000 589
  72.930 43.500  0.000 666
  72.920 43.500  0.000 682
  72.910 43.500  0.000 667
  72.900 43.500  0.000 713
  72.890 43.500  0.000 689
  72.880 43.500  0.000 767
  72.870 43.500  0.000 764
