Au-Sample
     0.00000    99.99871     0.20000     2.00000     0.50000    45.00000     0.00000   -15.00000     0.20000   501    10.0     0.00
PE 10.000KE/1  Ex=0.000eV WF=0.000eV Ck=XL Det=CTR1 
  Ekin    Phi    Theta  Counts
  -0.200 45.000  0.000 86
  -0.400 45.000  0.000 184
  -0.600 45.000  0.000 5540
  -0.800 45.000  0.000 996
  -1.000 45.000  0.000 1015
  -1.200 45.000  0.000 657
  -1.400 45.000  0.000 425
  -1.600 45.000  0.000 336
  -1.800 45.000  0.000 217
  -2.000 45.000  0.000 182
  -2.200 45.000  0.000 78
  -2.400 45.000  0.000 734
  -2.600 45.000  0.000 72
  -2.800 45.000  0.000 87
  -3.000 45.000  0.000 78
  -3.200 45.000  0.000 90
  -3.400 45.000  0.000 60
  -3.600 45.000  0.000 64
  -3.800 45.000  0.000 102
  -4.000 45.000  0.000 140
  -4.200 45.000  0.000 132
  -4.400 45.000  0.000 118
  -4.600 45.000  0.000 122
  -4.800 45.000  0.000 153
  -5.000 45.000  0.000 148
  -5.200 45.000  0.000 174
  -5.400 45.000  0.000 179
  -5.600 45.000  0.000 175
  -5.800 45.000  0.000 186
  -6.000 45.000  0.000 184
  -6.200 45.000  0.000 224
  -6.400 45.000  0.000 220
  -6.600 45.000  0.000 244
  -6.800 45.000  0.000 249
  -7.000 45.000  0.000 253
  -7.200 45.000  0.000 246
  -7.400 45.000  0.000 298
  -7.600 45.000  0.000 306
  -7.800 45.000  0.000 336
  -8.000 45.000  0.000 371
  -8.200 45.000  0.000 345
  -8.400 45.000  0.000 335
  -8.600 45.000  0.000 380
  -8.800 45.000  0.000 373
  -9.000 45.000  0.000 378
  -9.200 45.000  0.000 344
  -9.400 45.000  0.000 309
  -9.600 45.000  0.000 374
  -9.800 45.000  0.000 371
 -10.000 45.000  0.000 475
 -10.200 45.000  0.000 420
 -10.400 45.000  0.000 501
 -10.600 45.000  0.000 532
 -10.800 45.000  0.000 567
 -11.000 45.000  0.000 664
 -11.200 45.000  0.000 807
 -11.400 45.000  0.000 969
 -11.600 45.000  0.000 1250
 -11.800 45.000  0.000 1393
 -12.000 45.000  0.000 1677
 -12.200 45.000  0.000 1847
 -12.400 45.000  0.000 2081
 -12.600 45.000  0.000 2429
 -12.800 45.000  0.000 2912
 -13.000 45.000  0.000 3102
 -13.200 45.000  0.000 3528
 -13.400 45.000  0.000 3899
 -13.600 45.000  0.000 4191
 -13.800 45.000  0.000 4572
 -14.000 45.000  0.000 4848
 -14.200 45.000  0.000 5202
 -14.400 45.000  0.000 5435
 -14.600 45.000  0.000 5750
 -14.800 45.000  0.000 5828
 -15.000 45.000  0.000 6172
 -15.200 45.000  0.000 6437
 -15.400 45.000  0.000 6532
 -15.600 45.000  0.000 6452
 -15.800 45.000  0.000 6907
 -16.000 45.000  0.000 6930
 -16.200 45.000  0.000 6970
 -16.400 45.000  0.000 6940
 -16.600 45.000  0.000 7164
 -16.800 45.000  0.000 7069
 -17.000 45.000  0.000 7090
 -17.200 45.000  0.000 7142
 -17.400 45.000  0.000 7082
 -17.600 45.000  0.000 7088
 -17.800 45.000  0.000 7075
 -18.000 45.000  0.000 7156
 -18.200 45.000  0.000 7021
 -18.400 45.000  0.000 7089
 -18.600 45.000  0.000 6995
 -18.800 45.000  0.000 6901
 -19.000 45.000  0.000 6924
 -19.200 45.000  0.000 6945
 -19.400 45.000  0.000 6902
 -19.600 45.000  0.000 6660
 -19.800 45.000  0.000 7014
 -20.000 45.000  0.000 6942
 -20.200 45.000  0.000 6984
 -20.400 45.000  0.000 6726
 -20.600 45.000  0.000 6902
 -20.800 45.000  0.000 6819
 -21.000 45.000  0.000 6613
 -21.200 45.000  0.000 6580
 -21.400 45.000  0.000 6549
 -21.600 45.000  0.000 6469
 -21.800 45.000  0.000 6531
 -22.000 45.000  0.000 6224
 -22.200 45.000  0.000 6174
 -22.400 45.000  0.000 6029
 -22.600 45.000  0.000 6129
 -22.800 45.000  0.000 5868
 -23.000 45.000  0.000 5775
 -23.200 45.000  0.000 5616
 -23.400 45.000  0.000 5601
 -23.600 45.000  0.000 5544
 -23.800 45.000  0.000 5355
 -24.000 45.000  0.000 5339
 -24.200 45.000  0.000 5034
 -24.400 45.000  0.000 5014
 -24.600 45.000  0.000 4992
 -24.800 45.000  0.000 4924
 -25.000 45.000  0.000 4691
 -25.200 45.000  0.000 4615
 -25.400 45.000  0.000 4559
 -25.600 45.000  0.000 4606
 -25.800 45.000  0.000 4453
 -26.000 45.000  0.000 4189
 -26.200 45.000  0.000 4197
 -26.400 45.000  0.000 4272
 -26.600 45.000  0.000 4114
 -26.800 45.000  0.000 4080
 -27.000 45.000  0.000 3919
 -27.200 45.000  0.000 3917
 -27.400 45.000  0.000 3707
 -27.600 45.000  0.000 3637
 -27.800 45.000  0.000 3692
 -28.000 45.000  0.000 3623
 -28.200 45.000  0.000 3456
 -28.400 45.000  0.000 3631
 -28.600 45.000  0.000 3332
 -28.800 45.000  0.000 3368
 -29.000 45.000  0.000 3193
 -29.200 45.000  0.000 3354
 -29.400 45.000  0.000 3428
 -29.600 45.000  0.000 3433
 -29.800 45.000  0.000 3219
 -30.000 45.000  0.000 3217
 -30.200 45.000  0.000 3152
 -30.400 45.000  0.000 3020
 -30.600 45.000  0.000 3085
 -30.800 45.000  0.000 2952
 -31.000 45.000  0.000 3122
 -31.200 45.000  0.000 3065
 -31.400 45.000  0.000 2956
 -31.600 45.000  0.000 2925
 -31.800 45.000  0.000 2903
 -32.000 45.000  0.000 2775
 -32.200 45.000  0.000 2918
 -32.400 45.000  0.000 2897
 -32.600 45.000  0.000 2791
 -32.800 45.000  0.000 2713
 -33.000 45.000  0.000 2730
 -33.200 45.000  0.000 2829
 -33.400 45.000  0.000 2791
 -33.600 45.000  0.000 2750
 -33.800 45.000  0.000 2691
 -34.000 45.000  0.000 2791
 -34.200 45.000  0.000 2598
 -34.400 45.000  0.000 2632
 -34.600 45.000  0.000 2696
 -34.800 45.000  0.000 2562
 -35.000 45.000  0.000 2550
 -35.200 45.000  0.000 2716
 -35.400 45.000  0.000 2648
 -35.600 45.000  0.000 2592
 -35.800 45.000  0.000 2733
 -36.000 45.000  0.000 2643
 -36.200 45.000  0.000 2608
 -36.400 45.000  0.000 2642
 -36.600 45.000  0.000 2609
 -36.800 45.000  0.000 2624
 -37.000 45.000  0.000 2671
 -37.200 45.000  0.000 2712
 -37.400 45.000  0.000 2737
 -37.600 45.000  0.000 2774
 -37.800 45.000  0.000 2672
 -38.000 45.000  0.000 2615
 -38.200 45.000  0.000 2750
 -38.400 45.000  0.000 2847
 -38.600 45.000  0.000 2725
 -38.800 45.000  0.000 2817
 -38.999 45.000  0.000 2777
 -39.199 45.000  0.000 2700
 -39.399 45.000  0.000 2670
 -39.599 45.000  0.000 2721
 -39.799 45.000  0.000 2629
 -39.999 45.000  0.000 2629
 -40.199 45.000  0.000 2652
 -40.399 45.000  0.000 2548
 -40.599 45.000  0.000 2542
 -40.799 45.000  0.000 2505
 -40.999 45.000  0.000 2447
 -41.199 45.000  0.000 2431
 -41.399 45.000  0.000 2307
 -41.599 45.000  0.000 2363
 -41.799 45.000  0.000 2359
 -41.999 45.000  0.000 2188
 -42.199 45.000  0.000 2287
 -42.399 45.000  0.000 2108
 -42.599 45.000  0.000 2092
 -42.799 45.000  0.000 2075
 -42.999 45.000  0.000 2080
 -43.199 45.000  0.000 2059
 -43.399 45.000  0.000 2095
 -43.599 45.000  0.000 1996
 -43.799 45.000  0.000 2081
 -43.999 45.000  0.000 1943
 -44.199 45.000  0.000 1888
 -44.399 45.000  0.000 1981
 -44.599 45.000  0.000 1985
 -44.799 45.000  0.000 1974
 -44.999 45.000  0.000 2040
 -45.199 45.000  0.000 1979
 -45.399 45.000  0.000 2013
 -45.599 45.000  0.000 1822
 -45.799 45.000  0.000 1819
 -45.999 45.000  0.000 1742
 -46.199 45.000  0.000 1870
 -46.399 45.000  0.000 1831
 -46.599 45.000  0.000 2091
 -46.799 45.000  0.000 1922
 -46.999 45.000  0.000 1954
 -47.199 45.000  0.000 1794
 -47.399 45.000  0.000 1625
 -47.599 45.000  0.000 1586
 -47.799 45.000  0.000 1600
 -47.999 45.000  0.000 1592
 -48.199 45.000  0.000 1489
 -48.399 45.000  0.000 1499
 -48.599 45.000  0.000 1557
 -48.799 45.000  0.000 1561
 -48.999 45.000  0.000 1514
 -49.199 45.000  0.000 1520
 -49.399 45.000  0.000 1521
 -49.599 45.000  0.000 1452
 -49.799 45.000  0.000 1514
 -49.999 45.000  0.000 1369
 -50.199 45.000  0.000 1565
 -50.399 45.000  0.000 1504
 -50.599 45.000  0.000 1436
 -50.799 45.000  0.000 1473
 -50.999 45.000  0.000 1495
 -51.199 45.000  0.000 1459
 -51.399 45.000  0.000 1451
 -51.599 45.000  0.000 1452
 -51.799 45.000  0.000 1554
 -51.999 45.000  0.000 1545
 -52.199 45.000  0.000 1461
 -52.399 45.000  0.000 1451
 -52.599 45.000  0.000 1517
 -52.799 45.000  0.000 1544
 -52.999 45.000  0.000 1483
 -53.199 45.000  0.000 1595
 -53.399 45.000  0.000 1504
 -53.599 45.000  0.000 1599
 -53.799 45.000  0.000 1558
 -53.999 45.000  0.000 1707
 -54.199 45.000  0.000 1914
 -54.399 45.000  0.000 1956
 -54.599 45.000  0.000 1885
 -54.799 45.000  0.000 1727
 -54.999 45.000  0.000 1678
 -55.199 45.000  0.000 1695
 -55.399 45.000  0.000 1695
 -55.599 45.000  0.000 1852
 -55.799 45.000  0.000 2209
 -55.999 45.000  0.000 2042
 -56.199 45.000  0.000 1821
 -56.399 45.000  0.000 1593
 -56.599 45.000  0.000 1471
 -56.799 45.000  0.000 1477
 -56.999 45.000  0.000 1449
 -57.199 45.000  0.000 1387
 -57.399 45.000  0.000 1434
 -57.599 45.000  0.000 1470
 -57.799 45.000  0.000 1470
 -57.999 45.000  0.000 1404
 -58.199 45.000  0.000 1428
 -58.399 45.000  0.000 1395
 -58.599 45.000  0.000 1378
 -58.799 45.000  0.000 1329
 -58.999 45.000  0.000 1362
 -59.199 45.000  0.000 1325
 -59.399 45.000  0.000 1340
 -59.599 45.000  0.000 1294
 -59.799 45.000  0.000 1282
 -59.999 45.000  0.000 1329
 -60.199 45.000  0.000 1299
 -60.399 45.000  0.000 1287
 -60.599 45.000  0.000 1236
 -60.799 45.000  0.000 1237
 -60.999 45.000  0.000 1270
 -61.199 45.000  0.000 1157
 -61.399 45.000  0.000 1214
 -61.599 45.000  0.000 1186
 -61.799 45.000  0.000 1252
 -61.999 45.000  0.000 1256
 -62.199 45.000  0.000 1235
 -62.399 45.000  0.000 1306
 -62.599 45.000  0.000 1239
 -62.799 45.000  0.000 1278
 -62.999 45.000  0.000 1221
 -63.199 45.000  0.000 1178
 -63.399 45.000  0.000 1187
 -63.599 45.000  0.000 1188
 -63.799 45.000  0.000 1180
 -63.999 45.000  0.000 1172
 -64.199 45.000  0.000 1202
 -64.399 45.000  0.000 1242
 -64.599 45.000  0.000 1275
 -64.799 45.000  0.000 1326
 -64.999 45.000  0.000 1350
 -65.199 45.000  0.000 1346
 -65.399 45.000  0.000 1398
 -65.599 45.000  0.000 1501
 -65.799 45.000  0.000 1386
 -65.999 45.000  0.000 1416
 -66.199 45.000  0.000 1409
 -66.399 45.000  0.000 1425
 -66.599 45.000  0.000 1408
 -66.799 45.000  0.000 1417
 -66.999 45.000  0.000 1362
 -67.199 45.000  0.000 1393
 -67.399 45.000  0.000 1409
 -67.599 45.000  0.000 1356
 -67.799 45.000  0.000 1304
 -67.999 45.000  0.000 1389
 -68.199 45.000  0.000 1411
 -68.399 45.000  0.000 1423
 -68.599 45.000  0.000 1498
 -68.799 45.000  0.000 1425
 -68.999 45.000  0.000 1541
 -69.199 45.000  0.000 1396
 -69.399 45.000  0.000 1358
 -69.599 45.000  0.000 1474
 -69.799 45.000  0.000 1283
 -69.999 45.000  0.000 1378
 -70.199 45.000  0.000 1321
 -70.399 45.000  0.000 1404
 -70.599 45.000  0.000 1311
 -70.799 45.000  0.000 1216
 -70.999 45.000  0.000 1308
 -71.199 45.000  0.000 1295
 -71.399 45.000  0.000 1291
 -71.599 45.000  0.000 1284
 -71.799 45.000  0.000 1213
 -71.999 45.000  0.000 1195
 -72.199 45.000  0.000 1202
 -72.399 45.000  0.000 1195
 -72.599 45.000  0.000 1160
 -72.799 45.000  0.000 1204
 -72.999 45.000  0.000 1134
 -73.199 45.000  0.000 1108
 -73.399 45.000  0.000 1196
 -73.599 45.000  0.000 1178
 -73.799 45.000  0.000 1076
 -73.999 45.000  0.000 1068
 -74.199 45.000  0.000 1155
 -74.399 45.000  0.000 1149
 -74.599 45.000  0.000 1119
 -74.799 45.000  0.000 1103
 -74.999 45.000  0.000 1049
 -75.199 45.000  0.000 1103
 -75.399 45.000  0.000 1083
 -75.599 45.000  0.000 1126
 -75.799 45.000  0.000 1083
 -75.999 45.000  0.000 1012
 -76.199 45.000  0.000 1103
 -76.399 45.000  0.000 1055
 -76.599 45.000  0.000 1103
 -76.799 45.000  0.000 1013
 -76.999 45.000  0.000 949
 -77.199 45.000  0.000 1072
 -77.399 45.000  0.000 1054
 -77.599 45.000  0.000 1127
 -77.799 45.000  0.000 1097
 -77.999 45.000  0.000 1068
 -78.199 45.000  0.000 1087
 -78.399 45.000  0.000 1134
 -78.599 45.000  0.000 1122
 -78.799 45.000  0.000 1079
 -78.999 45.000  0.000 1048
 -79.199 45.000  0.000 1016
 -79.399 45.000  0.000 1076
 -79.599 45.000  0.000 1041
 -79.799 45.000  0.000 1077
 -79.999 45.000  0.000 1082
 -80.199 45.000  0.000 1184
 -80.399 45.000  0.000 1040
 -80.599 45.000  0.000 1082
 -80.799 45.000  0.000 1022
 -80.999 45.000  0.000 1079
 -81.199 45.000  0.000 1013
 -81.399 45.000  0.000 1043
 -81.599 45.000  0.000 1056
 -81.799 45.000  0.000 1030
 -81.999 45.000  0.000 1013
 -82.199 45.000  0.000 1048
 -82.399 45.000  0.000 1096
 -82.599 45.000  0.000 1130
 -82.799 45.000  0.000 1076
 -82.999 45.000  0.000 1058
 -83.199 45.000  0.000 1097
 -83.399 45.000  0.000 1121
 -83.599 45.000  0.000 1048
 -83.799 45.000  0.000 1126
 -83.999 45.000  0.000 1134
 -84.199 45.000  0.000 1144
 -84.399 45.000  0.000 1038
 -84.599 45.000  0.000 1163
 -84.799 45.000  0.000 1105
 -84.999 45.000  0.000 1174
 -85.199 45.000  0.000 1194
 -85.399 45.000  0.000 1306
 -85.599 45.000  0.000 1496
 -85.799 45.000  0.000 1697
 -85.999 45.000  0.000 1971
 -86.199 45.000  0.000 2175
 -86.399 45.000  0.000 1935
 -86.599 45.000  0.000 1540
 -86.799 45.000  0.000 1376
 -86.999 45.000  0.000 1318
 -87.199 45.000  0.000 1258
 -87.399 45.000  0.000 1319
 -87.599 45.000  0.000 1255
 -87.799 45.000  0.000 1389
 -87.999 45.000  0.000 1467
 -88.199 45.000  0.000 1600
 -88.399 45.000  0.000 1789
 -88.599 45.000  0.000 2105
 -88.799 45.000  0.000 2533
 -88.999 45.000  0.000 2832
 -89.199 45.000  0.000 3310
 -89.399 45.000  0.000 3455
 -89.599 45.000  0.000 3792
 -89.799 45.000  0.000 4267
 -89.999 45.000  0.000 4802
 -90.199 45.000  0.000 4898
 -90.399 45.000  0.000 4325
 -90.599 45.000  0.000 3616
 -90.799 45.000  0.000 3440
 -90.999 45.000  0.000 3360
 -91.199 45.000  0.000 3415
 -91.399 45.000  0.000 3623
 -91.599 45.000  0.000 3797
 -91.799 45.000  0.000 4211
 -91.999 45.000  0.000 4574
 -92.199 45.000  0.000 5033
 -92.399 45.000  0.000 5507
 -92.599 45.000  0.000 5634
 -92.799 45.000  0.000 5812
 -92.999 45.000  0.000 5916
 -93.199 45.000  0.000 5919
 -93.399 45.000  0.000 6115
 -93.599 45.000  0.000 5889
 -93.799 45.000  0.000 4555
 -93.999 45.000  0.000 2997
 -94.199 45.000  0.000 1724
 -94.399 45.000  0.000 1053
 -94.599 45.000  0.000 687
 -94.799 45.000  0.000 516
 -94.999 45.000  0.000 455
 -95.199 45.000  0.000 397
 -95.399 45.000  0.000 407
 -95.599 45.000  0.000 291
 -95.799 45.000  0.000 306
 -95.999 45.000  0.000 259
 -96.199 45.000  0.000 134
 -96.399 45.000  0.000 32
 -96.599 45.000  0.000 31
 -96.799 45.000  0.000 17
 -96.999 45.000  0.000 18
 -97.199 45.000  0.000 15
 -97.399 45.000  0.000 10
 -97.599 45.000  0.000 10
 -97.799 45.000  0.000 8
 -97.999 45.000  0.000 4
 -98.199 45.000  0.000 11
 -98.399 45.000  0.000 3
 -98.599 45.000  0.000 5
 -98.799 45.000  0.000 2
 -98.999 45.000  0.000 3
 -99.199 45.000  0.000 5
 -99.399 45.000  0.000 1
 -99.599 45.000  0.000 3
 -99.799 45.000  0.000 1
 -99.999 45.000  0.000 3
-100.199 45.000  0.000 1
    82.99999    99.99977     0.05000     2.00000     0.50000    45.00000     0.00000   -15.00000     0.20000   341     5.0     0.00
PE 5.000KE/1  Ex=0.000eV WF=0.000eV Ck=XL Det=CTR1 
  Ekin    Phi    Theta  Counts
  82.950 45.000  0.000 955
  82.900 45.000  0.000 941
  82.850 45.000  0.000 884
  82.800 45.000  0.000 867
  82.750 45.000  0.000 892
  82.700 45.000  0.000 872
  82.650 45.000  0.000 936
  82.600 45.000  0.000 886
  82.550 45.000  0.000 969
  82.500 45.000  0.000 931
  82.450 45.000  0.000 941
  82.400 45.000  0.000 932
  82.350 45.000  0.000 985
  82.300 45.000  0.000 936
  82.250 45.000  0.000 905
  82.200 45.000  0.000 923
  82.150 45.000  0.000 987
  82.100 45.000  0.000 972
  82.050 45.000  0.000 955
  82.000 45.000  0.000 927
  81.950 45.000  0.000 964
  81.900 45.000  0.000 990
  81.850 45.000  0.000 955
  81.800 45.000  0.000 933
  81.750 45.000  0.000 960
  81.700 45.000  0.000 951
  81.650 45.000  0.000 894
  81.600 45.000  0.000 907
  81.550 45.000  0.000 961
  81.500 45.000  0.000 1022
  81.450 45.000  0.000 1000
  81.400 45.000  0.000 972
  81.350 45.000  0.000 1035
  81.300 45.000  0.000 1025
  81.250 45.000  0.000 960
  81.200 45.000  0.000 957
  81.150 45.000  0.000 1021
  81.100 45.000  0.000 1008
  81.050 45.000  0.000 1035
  81.000 45.000  0.000 961
  80.950 45.000  0.000 1034
  80.900 45.000  0.000 1015
  80.850 45.000  0.000 1016
  80.800 45.000  0.000 1057
  80.750 45.000  0.000 1051
  80.700 45.000  0.000 1085
  80.650 45.000  0.000 1088
  80.600 45.000  0.000 1120
  80.550 45.000  0.000 1132
  80.500 45.000  0.000 1155
  80.450 45.000  0.000 1190
  80.400 45.000  0.000 1176
  80.350 45.000  0.000 1159
  80.300 45.000  0.000 1243
  80.250 45.000  0.000 1276
  80.200 45.000  0.000 1307
  80.150 45.000  0.000 1333
  80.100 45.000  0.000 1400
  80.050 45.000  0.000 1452
  80.000 45.000  0.000 1534
  79.950 45.000  0.000 1673
  79.900 45.000  0.000 1668
  79.850 45.000  0.000 1802
  79.800 45.000  0.000 1902
  79.750 45.000  0.000 1916
  79.700 45.000  0.000 1924
  79.650 45.000  0.000 2014
  79.600 45.000  0.000 1941
  79.550 45.000  0.000 1933
  79.500 45.000  0.000 1993
  79.450 45.000  0.000 1895
  79.400 45.000  0.000 1770
  79.350 45.000  0.000 1685
  79.300 45.000  0.000 1678
  79.250 45.000  0.000 1471
  79.200 45.000  0.000 1431
  79.150 45.000  0.000 1386
  79.100 45.000  0.000 1294
  79.050 45.000  0.000 1314
  79.000 45.000  0.000 1222
  78.950 45.000  0.000 1186
  78.900 45.000  0.000 1153
  78.850 45.000  0.000 1140
  78.800 45.000  0.000 1225
  78.750 45.000  0.000 1183
  78.700 45.000  0.000 1122
  78.650 45.000  0.000 1100
  78.600 45.000  0.000 1159
  78.550 45.000  0.000 1185
  78.500 45.000  0.000 1055
  78.450 45.000  0.000 1118
  78.400 45.000  0.000 1111
  78.350 45.000  0.000 1221
  78.300 45.000  0.000 1160
  78.250 45.000  0.000 1152
  78.200 45.000  0.000 1150
  78.150 45.000  0.000 1192
  78.100 45.000  0.000 1196
  78.050 45.000  0.000 1157
  78.000 45.000  0.000 1270
  77.950 45.000  0.000 1208
  77.900 45.000  0.000 1147
  77.850 45.000  0.000 1266
  77.800 45.000  0.000 1259
  77.750 45.000  0.000 1317
  77.700 45.000  0.000 1322
  77.650 45.000  0.000 1401
  77.600 45.000  0.000 1450
  77.550 45.000  0.000 1440
  77.500 45.000  0.000 1536
  77.450 45.000  0.000 1558
  77.400 45.000  0.000 1618
  77.350 45.000  0.000 1681
  77.300 45.000  0.000 1864
  77.250 45.000  0.000 1791
  77.200 45.000  0.000 1988
  77.150 45.000  0.000 2004
  77.100 45.000  0.000 2106
  77.050 45.000  0.000 2131
  77.000 45.000  0.000 2320
  76.950 45.000  0.000 2299
  76.900 45.000  0.000 2355
  76.850 45.000  0.000 2635
  76.800 45.000  0.000 2620
  76.750 45.000  0.000 2723
  76.700 45.000  0.000 2796
  76.650 45.000  0.000 2796
  76.600 45.000  0.000 2955
  76.550 45.000  0.000 2927
  76.500 45.000  0.000 3011
  76.450 45.000  0.000 3144
  76.400 45.000  0.000 3136
  76.350 45.000  0.000 3096
  76.300 45.000  0.000 3311
  76.250 45.000  0.000 3307
  76.200 45.000  0.000 3429
  76.150 45.000  0.000 3371
  76.100 45.000  0.000 3510
  76.050 45.000  0.000 3698
  76.000 45.000  0.000 3827
  75.950 45.000  0.000 4014
  75.900 45.000  0.000 4225
  75.850 45.000  0.000 4351
  75.800 45.000  0.000 4489
  75.750 45.000  0.000 4430
  75.700 45.000  0.000 4624
  75.650 45.000  0.000 4695
  75.600 45.000  0.000 4428
  75.550 45.000  0.000 4517
  75.500 45.000  0.000 4338
  75.450 45.000  0.000 4166
  75.400 45.000  0.000 4071
  75.350 45.000  0.000 3969
  75.300 45.000  0.000 3894
  75.250 45.000  0.000 3573
  75.200 45.000  0.000 3616
  75.150 45.000  0.000 3291
  75.100 45.000  0.000 3228
  75.050 45.000  0.000 3074
  75.000 45.000  0.000 3075
  74.950 45.000  0.000 3166
  74.900 45.000  0.000 3039
  74.850 45.000  0.000 3033
  74.800 45.000  0.000 3072
  74.750 45.000  0.000 3085
  74.700 45.000  0.000 3042
  74.650 45.000  0.000 3064
  74.600 45.000  0.000 3143
  74.550 45.000  0.000 3126
  74.500 45.000  0.000 3181
  74.450 45.000  0.000 3185
  74.400 45.000  0.000 3157
  74.350 45.000  0.000 3191
  74.300 45.000  0.000 3207
  74.250 45.000  0.000 3273
  74.200 45.000  0.000 3297
  74.150 45.000  0.000 3411
  74.100 45.000  0.000 3565
